GENios;   Serial number: 12900400814;   Firmware: V 6.02 16_06_2004 Genios;   XFLUOR4 Version: V 4.51						
Date:					28/7/07	
Time:					14:02	

Comment to this measurement:					YJM789 BY4741 Y06913 MnCl2 conc. growth 30C	
Measurement mode:					Absorbance	
Measurement wavelength:					595	nm
Number of flashes:					3	
Plate definition file:					NUNC48rdft.pdf	
Number of kinetic cycles:					100	
Kinetic interval (Minimal):					1032	s
Valid temparature range:					29 - 31	°C
Shake duration between cycles (Orbital High):					1000	s
Target Temperature:					30	°C
Current Temperature:					30	°C

Rawdata					Temperature: 29.8 °C																																													
Cycle No.	Time	Temp.	A1	B1	C1	D1	E1	F1	A2	B2	C2	D2	E2	F2	A3	B3	C3	D3	E3	F3	A4	B4	C4	D4	E4	F4	A5	B5	C5	D5	E5	F5	A6	B6	C6	D6	E6	F6	A7	B7	C7	D7	E7	F7	A8	B8	C8	D8	E8	F8
1	0	29.8	0.0659	0.0644	0.0642	0.0652	0.0675	0.0686	0.1121	0.1040	0.1236	0.1261	0.1111	0.1045	0.1393	0.1372	0.1628	0.1614	0.1576	0.1537	0.1040	0.1188	0.1339	0.1368	0.1208	0.1131	0.0952	0.1124	0.1029	0.1164	0.0897	0.1025	0.1251	0.1317	0.1571	0.1366	0.1344	0.1336	0.0993	0.1134	0.1150	0.1228	0.1003	0.0905	0.1045	0.0788	0.0788	0.1079	0.0745	0.1177
2	1033	29.8	0.0661	0.0639	0.0640	0.0652	0.0672	0.0676	0.2218	0.1690	0.2086	0.2168	0.1970	0.1385	0.1845	0.1865	0.2130	0.2103	0.1936	0.1792	0.1894	0.1697	0.2050	0.2293	0.1575	0.1444	0.1390	0.1556	0.1729	0.1392	0.1364	0.1566	0.1522	0.1862	0.2088	0.1872	0.1741	0.1577	0.1269	0.1574	0.1689	0.1498	0.1681	0.1268	0.1052	0.0786	0.0790	0.1078	0.0747	0.0801
3	2066	29.9	0.0658	0.0635	0.0638	0.0643	0.0673	0.0670	0.2680	0.2367	0.2288	0.2086	0.2016	0.1391	0.1812	0.2288	0.2522	0.2092	0.2295	0.1955	0.2717	0.1876	0.2394	0.1783	0.1630	0.1385	0.1547	0.2043	0.1803	0.1473	0.1356	0.1439	0.1807	0.2107	0.2254	0.2086	0.1670	0.1706	0.1440	0.1977	0.1961	0.1645	0.1424	0.1257	0.1049	0.0779	0.0794	0.1086	0.0743	0.0788
4	3099	29.9	0.0654	0.0632	0.0632	0.0645	0.0666	0.0678	0.3016	0.2272	0.2112	0.1909	0.2083	0.1318	0.1807	0.2133	0.2853	0.2210	0.2642	0.1818	0.2654	0.2239	0.2577	0.1891	0.1590	0.1357	0.1609	0.2239	0.2130	0.1504	0.1349	0.1396	0.1972	0.2230	0.3341	0.2007	0.1888	0.1704	0.1391	0.2067	0.1994	0.1510	0.1681	0.1398	0.1042	0.0776	0.0791	0.1078	0.0744	0.0790
5	4132	30.0	0.0655	0.0628	0.0632	0.0637	0.0669	0.0669	0.2424	0.1898	0.2306	0.1844	0.1739	0.1289	0.2436	0.2054	0.3385	0.2235	0.2428	0.1788	0.2168	0.2059	0.2388	0.1822	0.1601	0.1330	0.1724	0.3249	0.2186	0.1597	0.1385	0.1412	0.2320	0.2434	0.3502	0.1991	0.1961	0.1533	0.1352	0.1821	0.2030	0.1552	0.1668	0.1423	0.1045	0.0776	0.0786	0.1077	0.0757	0.0781
6	5164	30.1	0.0657	0.0625	0.0626	0.0636	0.0660	0.0675	0.2049	0.1849	0.2437	0.1867	0.1708	0.1316	0.2543	0.1945	0.2944	0.2168	0.2861	0.1882	0.1968	0.1858	0.2706	0.1893	0.1608	0.1350	0.1930	0.2235	0.2265	0.1741	0.1391	0.1413	0.2208	0.2633	0.2995	0.2090	0.1891	0.1738	0.1341	0.1907	0.2265	0.1778	0.1477	0.1325	0.1044	0.0782	0.0787	0.1090	0.0739	0.0796
7	6197	29.9	0.0660	0.0630	0.0629	0.0641	0.0660	0.0671	0.1903	0.1952	0.2372	0.1829	0.1727	0.1365	0.2596	0.2476	0.2993	0.2299	0.2810	0.1765	0.1820	0.1789	0.2775	0.1984	0.1599	0.1406	0.2012	0.2154	0.2313	0.1812	0.1568	0.1412	0.2623	0.2884	0.3116	0.2181	0.1829	0.1844	0.1386	0.2089	0.2067	0.1817	0.1787	0.1462	0.1048	0.0768	0.0784	0.1070	0.0740	0.0801
8	7230	29.9	0.0663	0.0630	0.0626	0.0643	0.0669	0.0675	0.1895	0.1921	0.2475	0.1941	0.1694	0.1357	0.2842	0.2182	0.2962	0.2407	0.2282	0.2041	0.2087	0.1781	0.2687	0.1976	0.1665	0.1371	0.2310	0.2271	0.2378	0.1965	0.1888	0.1494	0.2819	0.2959	0.3581	0.2495	0.1966	0.1841	0.1396	0.2092	0.2194	0.1604	0.1805	0.1354	0.1042	0.0789	0.0784	0.1083	0.0770	0.0785
9	8263	29.9	0.0653	0.0628	0.0635	0.0638	0.0664	0.0672	0.1848	0.1988	0.2547	0.1932	0.1685	0.1394	0.2504	0.2424	0.3125	0.2501	0.2367	0.1787	0.1779	0.1813	0.2525	0.1946	0.1649	0.1386	0.2158	0.2129	0.2321	0.1849	0.1952	0.1526	0.2730	0.2853	0.4203	0.2277	0.1935	0.1867	0.1373	0.2024	0.2057	0.1670	0.1574	0.1465	0.1041	0.0767	0.0799	0.1084	0.0744	0.0787
10	9296	30.0	0.0659	0.0632	0.0629	0.0637	0.0662	0.0671	0.1892	0.1866	0.2482	0.1986	0.1756	0.1396	0.2442	0.2092	0.3133	0.2379	0.2215	0.1832	0.2017	0.1864	0.2677	0.2046	0.1671	0.1517	0.2125	0.2166	0.2409	0.1891	0.2139	0.1688	0.2760	0.3193	0.3690	0.2571	0.2268	0.1987	0.1412	0.1991	0.2270	0.1732	0.1558	0.1399	0.1047	0.0776	0.0792	0.1081	0.0745	0.0789
11	10329	29.9	0.0656	0.0631	0.0627	0.0636	0.0668	0.0677	0.1825	0.2007	0.2622	0.2079	0.1766	0.1422	0.2820	0.2253	0.3187	0.2520	0.2552	0.1902	0.1989	0.1843	0.2856	0.1993	0.1689	0.1429	0.2220	0.2286	0.2539	0.1962	0.2251	0.1862	0.2823	0.3163	0.4221	0.2478	0.2386	0.2004	0.1463	0.1896	0.2416	0.1803	0.1741	0.1431	0.1040	0.0783	0.0784	0.1079	0.0740	0.0789
12	11361	29.9	0.0662	0.0632	0.0629	0.0644	0.0666	0.0672	0.1944	0.2208	0.2785	0.2341	0.1926	0.1453	0.2918	0.2231	0.3490	0.2544	0.2370	0.1907	0.1977	0.1852	0.2602	0.2088	0.1770	0.1553	0.2476	0.2572	0.2734	0.2134	0.2556	0.2121	0.3141	0.3282	0.4399	0.2513	0.2235	0.2364	0.1442	0.1976	0.2524	0.1808	0.1717	0.1465	0.1043	0.0784	0.0780	0.1065	0.0766	0.0795
13	12394	30.3	0.0659	0.0629	0.0633	0.0644	0.0665	0.0670	0.1893	0.2528	0.3021	0.2533	0.2042	0.1487	0.3116	0.2153	0.3547	0.2523	0.2731	0.2037	0.1939	0.1853	0.2882	0.2145	0.1808	0.1487	0.2623	0.2358	0.2877	0.2063	0.2372	0.2379	0.3194	0.3454	0.4583	0.2690	0.2283	0.2381	0.1464	0.1998	0.2544	0.1981	0.1713	0.1546	0.1040	0.0772	0.0786	0.1082	0.0740	0.0779
14	13427	30.0	0.0662	0.0625	0.0633	0.0640	0.0662	0.0674	0.1922	0.2602	0.2890	0.2494	0.2164	0.1532	0.3029	0.2494	0.3426	0.2699	0.2631	0.2026	0.1823	0.1725	0.2473	0.2219	0.1782	0.1512	0.2709	0.2654	0.2989	0.2298	0.2650	0.2413	0.3420	0.3472	0.4534	0.2704	0.2449	0.2425	0.1487	0.2117	0.2383	0.2129	0.1819	0.1511	0.1043	0.0771	0.0790	0.1075	0.0746	0.0791
15	14460	29.9	0.0663	0.0631	0.0630	0.0639	0.0665	0.0674	0.2086	0.2422	0.2873	0.2322	0.2060	0.1560	0.3300	0.2432	0.3479	0.2961	0.2489	0.2154	0.1934	0.1941	0.2670	0.2222	0.1852	0.1557	0.2348	0.2590	0.3103	0.2100	0.2240	0.2417	0.3405	0.3473	0.4534	0.2767	0.2792	0.2272	0.1560	0.2232	0.2667	0.2244	0.1916	0.1561	0.1048	0.0772	0.0791	0.1069	0.0744	0.0788
16	15493	30.0	0.0664	0.0628	0.0630	0.0642	0.0665	0.0677	0.2008	0.2562	0.3117	0.2452	0.2196	0.1699	0.3533	0.2533	0.3939	0.2792	0.2704	0.2192	0.1912	0.1922	0.2852	0.2254	0.1916	0.1573	0.2754	0.3030	0.3624	0.2431	0.2760	0.2873	0.3611	0.3822	0.4975	0.2965	0.2681	0.2694	0.1584	0.2256	0.2660	0.2095	0.2271	0.1662	0.1044	0.0768	0.0789	0.1072	0.0752	0.0803
17	16525	30.3	0.0666	0.0626	0.0635	0.0641	0.0664	0.0671	0.1974	0.2961	0.3393	0.2547	0.2369	0.1824	0.3754	0.2503	0.4079	0.2955	0.2689	0.2272	0.2000	0.1889	0.2885	0.2411	0.1929	0.1612	0.2539	0.3312	0.3797	0.2409	0.2958	0.2999	0.3940	0.4090	0.5412	0.3227	0.2979	0.2753	0.1629	0.2209	0.2716	0.2297	0.2093	0.1660	0.1048	0.0779	0.0811	0.1070	0.0741	0.0780
18	17558	30.0	0.0648	0.0626	0.0629	0.0639	0.0668	0.0676	0.2015	0.2863	0.3215	0.2566	0.2469	0.1906	0.3482	0.2451	0.3960	0.3118	0.2832	0.2316	0.1962	0.1983	0.2937	0.2410	0.2014	0.1696	0.2849	0.3567	0.3812	0.2472	0.2888	0.2785	0.3814	0.3865	0.5204	0.3223	0.2804	0.2595	0.1693	0.2329	0.2855	0.2520	0.2271	0.1680	0.1044	0.0778	0.0786	0.1077	0.0764	0.0788
19	18591	30.0	0.0662	0.0629	0.0628	0.0644	0.0663	0.0670	0.2202	0.3244	0.3455	0.2681	0.2455	0.2055	0.4008	0.2576	0.4443	0.3222	0.3089	0.2370	0.2042	0.1974	0.2938	0.2534	0.2054	0.1721	0.2823	0.4010	0.4194	0.2653	0.3044	0.3256	0.3937	0.3946	0.5173	0.3309	0.3426	0.2854	0.1752	0.2378	0.2946	0.2501	0.2388	0.1881	0.1044	0.0771	0.0796	0.1111	0.0734	0.0771
20	19624	29.8	0.0659	0.0629	0.0633	0.0639	0.0663	0.0675	0.2214	0.3121	0.3554	0.2805	0.2415	0.2141	0.3947	0.2867	0.4248	0.3262	0.2811	0.2916	0.2124	0.2205	0.3074	0.2572	0.2093	0.1753	0.2957	0.3948	0.4339	0.2682	0.3106	0.3010	0.3771	0.3888	0.5360	0.3173	0.3036	0.2781	0.1786	0.2599	0.3128	0.2441	0.2183	0.1807	0.1042	0.0778	0.0790	0.1081	0.0737	0.0785
21	20657	30.0	0.0661	0.0627	0.0630	0.0639	0.0665	0.0671	0.2116	0.3299	0.3663	0.2824	0.2500	0.2293	0.4279	0.2524	0.4779	0.3421	0.2927	0.2697	0.2089	0.1988	0.3040	0.2616	0.2153	0.1802	0.3098	0.4394	0.4732	0.2915	0.3341	0.3303	0.3861	0.3843	0.5700	0.3363	0.3266	0.3032	0.1829	0.2567	0.3054	0.2813	0.2372	0.1984	0.1042	0.0778	0.0797	0.1069	0.0736	0.0803
22	21690	30.0	0.0659	0.0630	0.0629	0.0635	0.0661	0.0675	0.2232	0.3259	0.3626	0.2968	0.2513	0.2312	0.4166	0.2583	0.4727	0.3598	0.3009	0.2498	0.2256	0.2029	0.3016	0.2630	0.2227	0.1802	0.3172	0.4282	0.4487	0.2890	0.3116	0.3059	0.4000	0.3631	0.5986	0.3577	0.3511	0.3060	0.1866	0.2553	0.3146	0.2527	0.2521	0.1924	0.1046	0.0775	0.0797	0.1065	0.0748	0.0794
23	22722	30.0	0.0659	0.0625	0.0635	0.0643	0.0657	0.0673	0.2341	0.3736	0.4099	0.3524	0.2896	0.2630	0.4644	0.3022	0.5246	0.3558	0.3554	0.2822	0.2342	0.2128	0.3182	0.2781	0.2320	0.2073	0.3462	0.4840	0.5303	0.3220	0.3752	0.3661	0.4157	0.3706	0.6395	0.3649	0.3484	0.3493	0.1937	0.2720	0.3256	0.2667	0.2561	0.1976	0.1042	0.0774	0.0791	0.1069	0.0744	0.0794
24	23755	30.0	0.0666	0.0623	0.0626	0.0641	0.0662	0.0671	0.2304	0.3766	0.4130	0.3575	0.2789	0.2734	0.4819	0.2753	0.5154	0.3537	0.3539	0.3150	0.2355	0.2208	0.3196	0.2953	0.2365	0.2048	0.3512	0.4766	0.5195	0.3146	0.3663	0.3527	0.4218	0.3938	0.6448	0.3630	0.3688	0.3539	0.2023	0.2894	0.3384	0.2861	0.2632	0.2095	0.1048	0.0779	0.0792	0.1076	0.0731	0.0808
25	24788	30.0	0.0664	0.0627	0.0631	0.0647	0.0667	0.0672	0.2577	0.3957	0.4286	0.3732	0.2926	0.2830	0.4959	0.3133	0.5887	0.3998	0.3662	0.3072	0.2394	0.2280	0.3458	0.3004	0.2359	0.2023	0.3680	0.5296	0.5415	0.3338	0.3799	0.3573	0.4270	0.3760	0.7050	0.3862	0.4539	0.3509	0.2174	0.3116	0.3753	0.3093	0.2708	0.2176	0.1045	0.0774	0.0784	0.1070	0.0757	0.0786
26	25821	30.0	0.0662	0.0630	0.0630	0.0637	0.0662	0.0670	0.2439	0.3794	0.4425	0.3567	0.2907	0.2819	0.5255	0.3013	0.5882	0.3771	0.3377	0.3179	0.2630	0.2247	0.3404	0.3070	0.2375	0.2154	0.3730	0.5113	0.5231	0.3286	0.3760	0.3759	0.4113	0.4070	0.6588	0.3622	0.4258	0.3717	0.2191	0.2985	0.3604	0.3081	0.2930	0.2280	0.1046	0.0769	0.0786	0.1104	0.0744	0.0797
27	26854	30.0	0.0667	0.0626	0.0631	0.0640	0.0661	0.0681	0.2635	0.4184	0.5101	0.4053	0.3035	0.3144	0.5407	0.3201	0.6329	0.4129	0.3694	0.3747	0.2567	0.2450	0.3564	0.3209	0.2526	0.2230	0.4142	0.5825	0.5813	0.3829	0.3952	0.3814	0.4314	0.4533	0.7333	0.3852	0.4085	0.3822	0.2302	0.3225	0.3842	0.3137	0.2849	0.2433	0.1037	0.0775	0.0808	0.1074	0.0744	0.0780
28	27887	30.0	0.0658	0.0627	0.0626	0.0637	0.0662	0.0667	0.2630	0.4051	0.5253	0.4018	0.3045	0.3066	0.5687	0.3162	0.6480	0.4213	0.3664	0.3724	0.2550	0.2446	0.3615	0.3309	0.2562	0.2232	0.4214	0.5706	0.5719	0.3712	0.3917	0.3904	0.4201	0.4089	0.7332	0.3890	0.4249	0.3839	0.2334	0.3224	0.3972	0.3245	0.3114	0.2445	0.1043	0.0778	0.0787	0.1069	0.0739	0.0795
29	28920	30.0	0.0659	0.0627	0.0635	0.0640	0.0665	0.0672	0.2756	0.4063	0.5245	0.3924	0.3098	0.3192	0.5991	0.3339	0.6794	0.4278	0.4042	0.4131	0.2688	0.2610	0.3746	0.3425	0.2633	0.2371	0.4357	0.5679	0.5920	0.3857	0.4403	0.4266	0.4214	0.4080	0.7299	0.4057	0.4781	0.4181	0.2462	0.3397	0.4245	0.3251	0.3158	0.2576	0.1054	0.0775	0.0795	0.1059	0.0740	0.0804
30	29952	30.0	0.0665	0.0622	0.0631	0.0640	0.0663	0.0675	0.2794	0.4210	0.5574	0.4134	0.3120	0.3247	0.6371	0.3490	0.7217	0.4417	0.4126	0.4678	0.2914	0.2727	0.3965	0.3621	0.2786	0.2367	0.4410	0.5809	0.6086	0.3978	0.4114	0.3814	0.3970	0.4265	0.7496	0.3998	0.4579	0.4217	0.2572	0.3548	0.4425	0.3435	0.3256	0.2701	0.1042	0.0775	0.0790	0.1069	0.0746	0.0784
31	30985	30.0	0.0665	0.0628	0.0645	0.0639	0.0664	0.0672	0.2890	0.4348	0.5574	0.4072	0.3110	0.3294	0.6971	0.3613	0.7133	0.4564	0.4101	0.4771	0.2830	0.2743	0.4082	0.3736	0.2821	0.2486	0.4373	0.5831	0.6071	0.3785	0.4284	0.4227	0.4092	0.4282	0.7216	0.4030	0.4968	0.4418	0.2715	0.3779	0.4605	0.3565	0.3449	0.2808	0.1044	0.0767	0.0788	0.1076	0.0744	0.0801
32	32018	30.0	0.0660	0.0630	0.0642	0.0641	0.0666	0.0672	0.3031	0.4657	0.6149	0.4511	0.3358	0.3621	0.7933	0.3707	0.8119	0.4834	0.4544	0.5282	0.3093	0.2898	0.4304	0.3893	0.2940	0.2664	0.5030	0.6530	0.6709	0.4309	0.4858	0.4842	0.4489	0.4522	0.7627	0.4340	0.4913	0.4962	0.2852	0.3971	0.4874	0.3656	0.3619	0.3009	0.1045	0.0776	0.0792	0.1079	0.0749	0.0782
33	33051	30.2	0.0664	0.0626	0.0649	0.0637	0.0664	0.0674	0.3119	0.4894	0.6401	0.4782	0.3617	0.3748	0.8422	0.3989	0.8524	0.5310	0.4633	0.5652	0.3141	0.3015	0.4498	0.4113	0.3104	0.2647	0.4998	0.6653	0.7147	0.4514	0.5379	0.5114	0.4236	0.5025	0.8159	0.4532	0.5316	0.5380	0.2999	0.4185	0.5047	0.3932	0.3958	0.3117	0.1042	0.0778	0.0787	0.1072	0.0756	0.0790
34	34084	30.0	0.0671	0.0628	0.0647	0.0639	0.0667	0.0678	0.3303	0.4880	0.6539	0.4858	0.3716	0.3780	0.8631	0.4100	0.8922	0.5873	0.4959	0.5772	0.3377	0.3233	0.4791	0.4264	0.3275	0.2802	0.5100	0.6897	0.7092	0.4638	0.5017	0.4984	0.4231	0.5194	0.8762	0.4803	0.5429	0.5441	0.3148	0.4442	0.5451	0.4121	0.4106	0.3327	0.1035	0.0779	0.0799	0.1065	0.0736	0.0788
35	35117	30.0	0.0661	0.0628	0.0645	0.0646	0.0667	0.0670	0.3394	0.5101	0.6593	0.5010	0.3854	0.3685	0.9062	0.4388	0.8853	0.6089	0.4901	0.5790	0.3530	0.3307	0.4976	0.4488	0.3344	0.3124	0.5351	0.6860	0.6775	0.4554	0.4767	0.4916	0.4273	0.5511	0.9004	0.4935	0.5228	0.5302	0.3301	0.4652	0.5898	0.4300	0.4079	0.3574	0.1033	0.0770	0.0808	0.1084	0.0741	0.0777
36	36149	30.3	0.0660	0.0625	0.0643	0.0641	0.0668	0.0673	0.3492	0.4909	0.6626	0.5006	0.3820	0.3699	0.9091	0.4520	0.9137	0.6567	0.5228	0.6328	0.3738	0.3477	0.5136	0.4675	0.3513	0.3172	0.5210	0.6913	0.6941	0.4603	0.4842	0.5026	0.4544	0.6141	0.9050	0.5191	0.5684	0.5556	0.3521	0.4856	0.5890	0.4555	0.4360	0.3687	0.1058	0.0775	0.0799	0.1063	0.0742	0.0790
37	37182	30.0	0.0664	0.0630	0.0641	0.0642	0.0666	0.0675	0.3678	0.5583	0.7320	0.5306	0.4112	0.3949	1.0013	0.4752	1.0036	0.7403	0.5900	0.6766	0.3724	0.3703	0.5393	0.4872	0.3729	0.3519	0.5822	0.7671	0.7530	0.5076	0.4838	0.5402	0.4445	0.7343	1.0026	0.5395	0.5838	0.6290	0.3664	0.5106	0.6468	0.4712	0.4467	0.3913	0.1036	0.0783	0.0787	0.1064	0.0747	0.0779
38	38215	30.0	0.0661	0.0631	0.0642	0.0637	0.0665	0.0671	0.3717	0.5537	0.7418	0.5397	0.3954	0.4026	1.0148	0.5330	1.0137	0.7523	0.6912	0.6968	0.3930	0.3799	0.5576	0.5112	0.3750	0.3353	0.5799	0.7742	0.7669	0.5228	0.5446	0.5839	0.5189	0.7290	1.0080	0.5620	0.6018	0.6994	0.3905	0.5380	0.6414	0.4809	0.4749	0.4116	0.1043	0.0767	0.0792	0.1073	0.0757	0.0802
39	39248	30.0	0.0670	0.0629	0.0645	0.0640	0.0664	0.0669	0.3915	0.5551	0.7305	0.5374	0.4064	0.3852	0.9944	0.6042	0.9841	0.7592	0.6975	0.6890	0.4267	0.4002	0.5806	0.5345	0.3930	0.3469	0.5370	0.7402	0.7451	0.4753	0.5365	0.5373	0.4915	0.7579	1.0029	0.5954	0.6877	0.6812	0.4108	0.5649	0.6893	0.5007	0.4979	0.4365	0.1040	0.0785	0.0802	0.1072	0.0735	0.0788
40	40281	30.0	0.0660	0.0628	0.0642	0.0634	0.0669	0.0670	0.4103	0.5709	0.7660	0.5760	0.3993	0.4026	1.0351	0.6913	1.0268	0.8480	0.7723	0.7234	0.4625	0.4211	0.6740	0.5683	0.4244	0.3781	0.6058	0.7962	0.8072	0.5279	0.5731	0.5842	0.5119	0.8317	1.0495	0.7277	0.8336	0.7544	0.4338	0.5888	0.7782	0.5413	0.5291	0.4624	0.1036	0.0794	0.0797	0.1073	0.0740	0.0786
41	41314	30.2	0.0665	0.0632	0.0642	0.0635	0.0664	0.0682	0.4303	0.5742	0.8114	0.5864	0.4312	0.4219	1.0760	0.7591	1.0868	0.9152	0.8653	0.7886	0.4733	0.4433	0.6933	0.5852	0.4311	0.3752	0.6294	0.8479	0.8775	0.5587	0.6386	0.5920	0.5011	0.8714	1.0886	0.7742	0.9534	0.8323	0.4556	0.6098	0.7828	0.5510	0.5460	0.4813	0.1043	0.0784	0.0783	0.1074	0.0738	0.0794
42	42347	30.0	0.0664	0.0630	0.0640	0.0633	0.0666	0.0673	0.4320	0.6235	0.8074	0.6192	0.4414	0.4321	1.0761	0.7963	1.0871	0.9248	0.8574	0.7835	0.5015	0.4698	0.7281	0.6218	0.4559	0.4131	0.6351	0.8604	0.8441	0.5617	0.6051	0.6224	0.5370	0.9549	1.1121	0.8934	0.9888	0.8437	0.4836	0.6667	0.8772	0.5910	0.5790	0.5105	0.1035	0.0777	0.0786	0.1071	0.0741	0.0784
43	43379	30.0	0.0662	0.0631	0.0648	0.0637	0.0664	0.0669	0.4490	0.6117	0.8440	0.6167	0.4544	0.4437	1.0920	0.8261	1.0927	0.9475	0.8790	0.8082	0.5117	0.4879	0.7332	0.6309	0.4662	0.4164	0.6454	0.8595	0.8626	0.5457	0.6162	0.6302	0.5567	0.9357	1.0935	0.9133	1.0503	0.8785	0.5057	0.6595	0.8268	0.5851	0.5976	0.5224	0.1041	0.0773	0.0791	0.1063	0.0747	0.0787
44	44412	30.0	0.0666	0.0626	0.0648	0.0642	0.0668	0.0672	0.4792	0.6067	0.8671	0.6315	0.4556	0.4444	1.1101	0.8787	1.1400	1.0080	0.9266	0.8324	0.5438	0.5069	0.7542	0.6633	0.4979	0.4482	0.6508	0.8878	0.9104	0.5834	0.6495	0.6613	0.5854	1.0094	1.1672	0.9854	1.1111	0.9277	0.5227	0.7373	0.9360	0.6410	0.6253	0.5863	0.1038	0.0763	0.0794	0.1066	0.0752	0.0800
45	45445	30.2	0.0666	0.0631	0.0641	0.0640	0.0665	0.0678	0.4864	0.6299	0.8792	0.6663	0.4752	0.4464	1.1413	0.9485	1.1699	1.0861	0.9332	0.8349	0.5587	0.5380	0.7912	0.6915	0.5203	0.5238	0.7089	0.9301	0.9298	0.6194	0.6668	0.6192	0.6511	1.1011	1.2174	1.0081	1.1556	0.9206	0.5403	0.7994	1.0064	0.6767	0.6545	0.6180	0.1046	0.0775	0.0795	0.1089	0.0744	0.0786
46	46478	30.0	0.0663	0.0631	0.0643	0.0642	0.0664	0.0675	0.5103	0.6488	0.9044	0.6772	0.4774	0.4568	1.1542	0.9678	1.1749	1.1094	0.9706	0.8740	0.5944	0.5625	0.8231	0.7239	0.5520	0.5734	0.6888	0.9447	0.9468	0.6108	0.6940	0.6530	0.6899	1.0977	1.2353	1.0541	1.1896	0.9673	0.5656	0.8000	1.0455	0.7007	0.6849	0.7092	0.1041	0.0786	0.0792	0.1083	0.0756	0.0796
47	47511	30.0	0.0668	0.0635	0.0644	0.0636	0.0666	0.0670	0.5447	0.6579	0.9126	0.6714	0.5012	0.4672	1.1490	0.9815	1.1808	1.1013	0.9941	0.8725	0.6146	0.5901	0.8362	0.7355	0.5654	0.6373	0.6684	0.9389	0.9649	0.6083	0.7371	0.7135	0.6901	1.0968	1.2100	1.1014	1.2120	0.9784	0.5833	0.7849	1.0001	0.6968	0.7054	0.6917	0.1041	0.0779	0.0789	0.1062	0.0764	0.0785
48	48544	30.0	0.0669	0.0634	0.0645	0.0638	0.0668	0.0670	0.5663	0.6735	0.9221	0.7044	0.4934	0.4802	1.1755	1.0201	1.2400	1.1795	0.9973	0.8878	0.6550	0.6027	1.0153	0.7895	0.5957	0.7452	0.6866	0.9839	0.9601	0.6418	0.6787	0.6741	0.7735	1.2709	1.3355	1.1495	1.2496	0.9910	0.6221	0.8924	1.2168	0.7624	0.7734	0.9035	0.1037	0.0778	0.0793	0.1084	0.0745	0.0783
49	49577	30.0	0.0666	0.0624	0.0643	0.0643	0.0659	0.0678	0.5489	0.7027	0.9536	0.7312	0.5228	0.4844	1.2014	1.0779	1.2794	1.2213	1.0508	0.9477	0.6645	0.6354	1.0930	0.8393	0.6208	0.8132	0.7159	1.0157	1.0324	0.6961	0.7577	0.7298	0.8419	1.2938	1.3522	1.2223	1.2883	1.0456	0.6470	0.9419	1.2608	0.8068	0.8724	1.1301	0.1041	0.0779	0.0793	0.1077	0.0744	0.0779
50	50610	30.0	0.0671	0.0629	0.0647	0.0648	0.0663	0.0672	0.5881	0.7351	0.9690	0.7433	0.5326	0.5065	1.2152	1.0916	1.2888	1.2560	1.0473	0.9425	0.7055	0.6763	1.1641	0.8831	0.6396	0.8607	0.7530	1.0399	1.0283	0.6998	0.7535	0.7215	0.9084	1.3212	1.3764	1.2230	1.2942	1.0475	0.6800	0.9470	1.2736	0.8196	0.9050	1.1888	0.1034	0.0774	0.0796	0.1081	0.0737	0.0791
51	51643	29.9	0.0668	0.0635	0.0645	0.0636	0.0661	0.0668	0.6260	0.6955	0.9603	0.7339	0.5137	0.4816	1.2011	1.0884	1.2786	1.2558	1.0487	0.9178	0.7618	0.7064	1.1817	1.0512	0.6965	0.8509	0.7281	0.9758	0.9783	0.6685	0.7348	0.7402	0.9848	1.2726	1.3418	1.2233	1.2954	1.0380	0.6959	0.9549	1.2372	0.8135	0.9367	1.2333	0.1038	0.0784	0.0794	0.1075	0.0741	0.0781
52	52675	30.0	0.0659	0.0631	0.0641	0.0640	0.0665	0.0674	0.6745	0.7365	0.9884	0.7664	0.5617	0.5337	1.2527	1.1493	1.3371	1.3152	1.1075	0.9694	0.7825	0.6980	1.2464	1.1571	0.6980	0.8460	0.7781	1.0552	1.0569	0.7484	0.7910	0.7746	1.0171	1.3412	1.3735	1.2776	1.3536	1.0858	0.6954	0.9936	1.2743	0.8211	0.9490	1.2940	0.1043	0.0776	0.0792	0.1063	0.0738	0.0790
53	53708	30.0	0.0670	0.0630	0.0645	0.0640	0.0666	0.0676	0.6793	0.7625	1.0214	0.7864	0.5760	0.5324	1.2981	1.2018	1.3734	1.3637	1.1576	0.9810	0.9482	0.7457	1.3428	1.2499	0.7575	0.9796	0.7862	1.1119	1.0968	0.7919	0.8406	0.7828	1.1618	1.4188	1.4413	1.3560	1.4098	1.1066	0.8228	1.0999	1.4114	0.9074	1.0177	1.3443	0.1042	0.0772	0.0783	0.1074	0.0776	0.0785
54	54741	30.3	0.0664	0.0626	0.0647	0.0636	0.0664	0.0672	0.7000	0.8021	1.0447	0.8057	0.6044	0.5550	1.3131	1.2616	1.3928	1.3983	1.2043	1.0282	1.0661	0.7573	1.3899	1.3098	0.8742	1.0552	0.8627	1.1667	1.1589	0.8435	0.8833	0.7947	1.2415	1.4674	1.4700	1.4035	1.4366	1.1549	0.8917	1.2392	1.4763	0.9177	0.9834	1.3812	0.1041	0.0782	0.0795	0.1087	0.0736	0.0789
